step    Monochromator-step  cps
1.000	5000.000	240.000
2.000	5001.000	220.000
3.000	5002.000	400.000
4.000	5003.000	320.000
5.000	5004.000	390.000
6.000	5005.000	420.000
7.000	5006.000	280.000
8.000	5007.000	440.000
9.000	5008.000	330.000
10.000	5009.000	300.000
11.000	5010.000	370.000
12.000	5011.000	390.000
13.000	5012.000	320.000
14.000	5013.000	360.000
15.000	5014.000	430.000
16.000	5015.000	350.000
17.000	5016.000	230.000
18.000	5017.000	310.000
19.000	5018.000	370.000
20.000	5019.000	360.000
21.000	5020.000	430.000
22.000	5021.000	7320.000
23.000	5022.000	370.000
24.000	5023.000	380.000
25.000	5024.000	430.000
26.000	5025.000	240.000
27.000	5026.000	660.000
28.000	5027.000	440.000
29.000	5028.000	5000.000
30.000	5029.000	350.000
31.000	5030.000	680.000
32.000	5031.000	330.000
33.000	5032.000	320.000
34.000	5033.000	430.000
35.000	5034.000	360.000
36.000	5035.000	1520.000
37.000	5036.000	280.000
38.000	5037.000	350.000
39.000	5038.000	480.000
40.000	5039.000	440.000
41.000	5040.000	210.000
42.000	5041.000	270.000
43.000	5042.000	280.000
44.000	5043.000	290.000
45.000	5044.000	240.000
46.000	5045.000	310.000
47.000	5046.000	310.000
48.000	5047.000	360.000
49.000	5048.000	370.000
50.000	5049.000	370.000
51.000	5050.000	330.000
52.000	5051.000	360.000
53.000	5052.000	360.000
54.000	5053.000	390.000
55.000	5054.000	370.000
56.000	5055.000	260.000
57.000	5056.000	330.000
58.000	5057.000	390.000
59.000	5058.000	230.000
60.000	5059.000	310.000
61.000	5060.000	410.000
62.000	5061.000	290.000
63.000	5062.000	320.000
64.000	5063.000	250.000
65.000	5064.000	450.000
66.000	5065.000	1050.000
67.000	5066.000	280.000
68.000	5067.000	590.000
69.000	5068.000	280.000
70.000	5069.000	2950.000
71.000	5070.000	310.000
72.000	5071.000	320.000
73.000	5072.000	370.000
74.000	5073.000	300.000
75.000	5074.000	280.000
76.000	5075.000	370.000
77.000	5076.000	320.000
78.000	5077.000	330.000
79.000	5078.000	290.000
80.000	5079.000	310.000
81.000	5080.000	8680.000
82.000	5081.000	260.000
83.000	5082.000	330.000
84.000	5083.000	380.000
85.000	5084.000	400.000
86.000	5085.000	2910.000
87.000	5086.000	560.000
88.000	5087.000	380.000
89.000	5088.000	220.000
90.000	5089.000	330.000
91.000	5090.000	880.000
92.000	5091.000	250.000
93.000	5092.000	370.000
94.000	5093.000	360.000
95.000	5094.000	460.000
96.000	5095.000	480.000
97.000	5096.000	300.000
98.000	5097.000	250.000
99.000	5098.000	3560.000
100.000	5099.000	270.000
101.000	5100.000	200.000
102.000	5101.000	320.000
103.000	5102.000	360.000
104.000	5103.000	200.000
105.000	5104.000	330.000
106.000	5105.000	300.000
107.000	5106.000	220.000
108.000	5107.000	260.000
109.000	5108.000	350.000
110.000	5109.000	280.000
111.000	5110.000	530.000
112.000	5111.000	320.000
113.000	5112.000	290.000
114.000	5113.000	280.000
115.000	5114.000	280.000
116.000	5115.000	380.000
117.000	5116.000	230.000
118.000	5117.000	380.000
119.000	5118.000	270.000
120.000	5119.000	240.000
121.000	5120.000	270.000
122.000	5121.000	270.000
123.000	5122.000	270.000
124.000	5123.000	230.000
125.000	5124.000	340.000
126.000	5125.000	250.000
127.000	5126.000	280.000
128.000	5127.000	310.000
129.000	5128.000	290.000
130.000	5129.000	390.000
131.000	5130.000	250.000
132.000	5131.000	320.000
133.000	5132.000	270.000
134.000	5133.000	310.000
135.000	5134.000	240.000
136.000	5135.000	340.000
137.000	5136.000	370.000
138.000	5137.000	340.000
139.000	5138.000	300.000
140.000	5139.000	180.000
141.000	5140.000	330.000
142.000	5141.000	350.000
143.000	5142.000	190.000
144.000	5143.000	330.000
145.000	5144.000	260.000
146.000	5145.000	300.000
147.000	5146.000	300.000
148.000	5147.000	360.000
149.000	5148.000	280.000
150.000	5149.000	290.000
151.000	5150.000	400.000
152.000	5151.000	310.000
153.000	5152.000	260.000
154.000	5153.000	410.000
155.000	5154.000	330.000
156.000	5155.000	260.000
157.000	5156.000	410.000
158.000	5157.000	340.000
159.000	5158.000	350.000
160.000	5159.000	290.000
161.000	5160.000	290.000
162.000	5161.000	260.000
163.000	5162.000	260.000
164.000	5163.000	260.000
165.000	5164.000	240.000
166.000	5165.000	350.000
167.000	5166.000	260.000
168.000	5167.000	330.000
169.000	5168.000	340.000
170.000	5169.000	200.000
171.000	5170.000	280.000
172.000	5171.000	460.000
173.000	5172.000	330.000
174.000	5173.000	410.000
175.000	5174.000	370.000
176.000	5175.000	320.000
177.000	5176.000	150.000
178.000	5177.000	340.000
179.000	5178.000	350.000
180.000	5179.000	360.000
181.000	5180.000	1650.000
182.000	5181.000	330.000
183.000	5182.000	340.000
184.000	5183.000	330.000
185.000	5184.000	280.000
186.000	5185.000	300.000
187.000	5186.000	310.000
188.000	5187.000	350.000
189.000	5188.000	220.000
190.000	5189.000	300.000
191.000	5190.000	510.000
192.000	5191.000	310.000
193.000	5192.000	300.000
194.000	5193.000	310.000
195.000	5194.000	240.000
196.000	5195.000	280.000
197.000	5196.000	280.000
198.000	5197.000	360.000
199.000	5198.000	260.000
200.000	5199.000	310.000
201.000	5200.000	460.000
202.000	5201.000	350.000
203.000	5202.000	3390.000
204.000	5203.000	440.000
205.000	5204.000	410.000
206.000	5205.000	640.000
207.000	5206.000	45920.000
208.000	5207.000	380.000
209.000	5208.000	330.000
210.000	5209.000	460.000
211.000	5210.000	640.000
212.000	5211.000	670.000
213.000	5212.000	530.000
214.000	5213.000	400.000
215.000	5214.000	420.000
216.000	5215.000	550.000
217.000	5216.000	13970.000
218.000	5217.000	790.000
219.000	5218.000	1610.000
220.000	5219.000	990.000
221.000	5220.000	580.000
222.000	5221.000	440.000
223.000	5222.000	540.000
224.000	5223.000	460.000
225.000	5224.000	610.000
226.000	5225.000	440.000
227.000	5226.000	330.000
228.000	5227.000	280.000
229.000	5228.000	340.000
230.000	5229.000	320.000
231.000	5230.000	720.000
232.000	5231.000	200.000
233.000	5232.000	330.000
234.000	5233.000	350.000
235.000	5234.000	380.000
236.000	5235.000	1760.000
237.000	5236.000	320.000
238.000	5237.000	450.000
239.000	5238.000	410.000
240.000	5239.000	180.000
241.000	5240.000	360.000
242.000	5241.000	350.000
243.000	5242.000	440.000
244.000	5243.000	280.000
245.000	5244.000	290.000
246.000	5245.000	330.000
247.000	5246.000	390.000
248.000	5247.000	660.000
249.000	5248.000	330.000
250.000	5249.000	330.000
251.000	5250.000	1010.000
252.000	5251.000	260.000
253.000	5252.000	280.000
254.000	5253.000	330.000
255.000	5254.000	280.000
256.000	5255.000	350.000
257.000	5256.000	300.000
258.000	5257.000	350.000
259.000	5258.000	370.000
260.000	5259.000	340.000
261.000	5260.000	330.000
262.000	5261.000	400.000
263.000	5262.000	300.000
264.000	5263.000	440.000
265.000	5264.000	450.000
266.000	5265.000	320.000
267.000	5266.000	460.000
268.000	5267.000	400.000
269.000	5268.000	410.000
270.000	5269.000	570.000
271.000	5270.000	400.000
272.000	5271.000	380.000
273.000	5272.000	540.000
274.000	5273.000	600.000
275.000	5274.000	560.000
276.000	5275.000	5130.000
277.000	5276.000	10410.000
278.000	5277.000	590.000
279.000	5278.000	470.000
280.000	5279.000	980.000
281.000	5280.000	790.000
282.000	5281.000	670.000
283.000	5282.000	630.000
284.000	5283.000	690.000
285.000	5284.000	450.000
286.000	5285.000	600.000
287.000	5286.000	600.000
288.000	5287.000	750.000
289.000	5288.000	660.000
290.000	5289.000	710.000
291.000	5290.000	610.000
292.000	5291.000	610.000
293.000	5292.000	530.000
294.000	5293.000	620.000
295.000	5294.000	580.000
296.000	5295.000	890.000
297.000	5296.000	560.000
298.000	5297.000	550.000
299.000	5298.000	540.000
300.000	5299.000	460.000
301.000	5300.000	640.000
302.000	5301.000	460.000
303.000	5302.000	620.000
304.000	5303.000	590.000
305.000	5304.000	410.000
306.000	5305.000	530.000
307.000	5306.000	420.000
308.000	5307.000	600.000
309.000	5308.000	1380.000
310.000	5309.000	490.000
311.000	5310.000	360.000
312.000	5311.000	380.000
313.000	5312.000	470.000
314.000	5313.000	540.000
315.000	5314.000	500.000
316.000	5315.000	400.000
317.000	5316.000	410.000
318.000	5317.000	500.000
319.000	5318.000	540.000
320.000	5319.000	350.000
321.000	5320.000	410.000
322.000	5321.000	400.000
323.000	5322.000	470.000
324.000	5323.000	950.000
325.000	5324.000	440.000
326.000	5325.000	560.000
327.000	5326.000	490.000
328.000	5327.000	380.000
329.000	5328.000	560.000
330.000	5329.000	440.000
331.000	5330.000	560.000
332.000	5331.000	430.000
333.000	5332.000	590.000
334.000	5333.000	490.000
335.000	5334.000	570.000
336.000	5335.000	950.000
337.000	5336.000	550.000
338.000	5337.000	570.000
339.000	5338.000	390.000
340.000	5339.000	330.000
341.000	5340.000	280.000
342.000	5341.000	520.000
343.000	5342.000	510.000
344.000	5343.000	420.000
345.000	5344.000	400.000
346.000	5345.000	520.000
347.000	5346.000	510.000
348.000	5347.000	490.000
349.000	5348.000	480.000
350.000	5349.000	520.000
351.000	5350.000	420.000
352.000	5351.000	510.000
353.000	5352.000	520.000
354.000	5353.000	380.000
355.000	5354.000	510.000
356.000	5355.000	350.000
357.000	5356.000	500.000
358.000	5357.000	280.000
359.000	5358.000	260.000
360.000	5359.000	410.000
361.000	5360.000	380.000
362.000	5361.000	380.000
363.000	5362.000	330.000
364.000	5363.000	440.000
365.000	5364.000	360.000
366.000	5365.000	430.000
367.000	5366.000	480.000
368.000	5367.000	390.000
369.000	5368.000	380.000
370.000	5369.000	880.000
371.000	5370.000	440.000
372.000	5371.000	400.000
373.000	5372.000	450.000
374.000	5373.000	320.000
375.000	5374.000	450.000
376.000	5375.000	460.000
377.000	5376.000	460.000
378.000	5377.000	440.000
379.000	5378.000	440.000
380.000	5379.000	420.000
381.000	5380.000	380.000
382.000	5381.000	280.000
383.000	5382.000	460.000
384.000	5383.000	450.000
385.000	5384.000	410.000
386.000	5385.000	360.000
387.000	5386.000	370.000
388.000	5387.000	260.000
389.000	5388.000	300.000
390.000	5389.000	370.000
391.000	5390.000	400.000
392.000	5391.000	510.000
393.000	5392.000	360.000
394.000	5393.000	290.000
395.000	5394.000	350.000
396.000	5395.000	480.000
397.000	5396.000	530.000
398.000	5397.000	400.000
399.000	5398.000	410.000
400.000	5399.000	350.000
401.000	5400.000	470.000
402.000	5401.000	310.000
403.000	5402.000	440.000
404.000	5403.000	320.000
405.000	5404.000	260.000
406.000	5405.000	310.000
407.000	5406.000	280.000
408.000	5407.000	310.000
409.000	5408.000	640.000
410.000	5409.000	310.000
411.000	5410.000	440.000
412.000	5411.000	320.000
413.000	5412.000	260.000
414.000	5413.000	600.000
415.000	5414.000	280.000
416.000	5415.000	530.000
417.000	5416.000	320.000
418.000	5417.000	460.000
419.000	5418.000	230.000
420.000	5419.000	320.000
421.000	5420.000	380.000
422.000	5421.000	320.000
423.000	5422.000	380.000
424.000	5423.000	340.000
425.000	5424.000	300.000
426.000	5425.000	260.000
427.000	5426.000	230.000
428.000	5427.000	270.000
429.000	5428.000	330.000
430.000	5429.000	360.000
431.000	5430.000	410.000
432.000	5431.000	340.000
433.000	5432.000	280.000
434.000	5433.000	400.000
435.000	5434.000	340.000
436.000	5435.000	300.000
437.000	5436.000	480.000
438.000	5437.000	9320.000
439.000	5438.000	280.000
440.000	5439.000	330.000
441.000	5440.000	340.000
442.000	5441.000	280.000
443.000	5442.000	380.000
444.000	5443.000	400.000
445.000	5444.000	440.000
446.000	5445.000	350.000
447.000	5446.000	350.000
448.000	5447.000	290.000
449.000	5448.000	460.000
450.000	5449.000	240.000
451.000	5450.000	290.000
452.000	5451.000	350.000
453.000	5452.000	280.000
454.000	5453.000	320.000
455.000	5454.000	290.000
456.000	5455.000	340.000
457.000	5456.000	250.000
458.000	5457.000	330.000
459.000	5458.000	360.000
460.000	5459.000	300.000
461.000	5460.000	290.000
462.000	5461.000	300.000
463.000	5462.000	370.000
464.000	5463.000	370.000
465.000	5464.000	290.000
466.000	5465.000	280.000
467.000	5466.000	360.000
468.000	5467.000	390.000
469.000	5468.000	220.000
470.000	5469.000	250.000
471.000	5470.000	250.000
472.000	5471.000	400.000
473.000	5472.000	270.000
474.000	5473.000	240.000
475.000	5474.000	210.000
476.000	5475.000	230.000
477.000	5476.000	250.000
478.000	5477.000	330.000
479.000	5478.000	370.000
480.000	5479.000	290.000
481.000	5480.000	340.000
482.000	5481.000	270.000
483.000	5482.000	360.000
484.000	5483.000	450.000
485.000	5484.000	340.000
486.000	5485.000	330.000
487.000	5486.000	370.000
488.000	5487.000	240.000
489.000	5488.000	260.000
490.000	5489.000	320.000
491.000	5490.000	190.000
492.000	5491.000	310.000
493.000	5492.000	200.000
494.000	5493.000	220.000
495.000	5494.000	280.000
496.000	5495.000	240.000
497.000	5496.000	300.000
498.000	5497.000	240.000
499.000	5498.000	360.000
500.000	5499.000	260.000
501.000	5500.000	440.000
502.000	5501.000	360.000
503.000	5502.000	270.000
504.000	5503.000	240.000
505.000	5504.000	240.000
506.000	5505.000	280.000
507.000	5506.000	590.000
508.000	5507.000	320.000
509.000	5508.000	360.000
510.000	5509.000	210.000
511.000	5510.000	350.000
512.000	5511.000	310.000
513.000	5512.000	350.000
514.000	5513.000	350.000
515.000	5514.000	270.000
516.000	5515.000	280.000
517.000	5516.000	230.000
518.000	5517.000	270.000
519.000	5518.000	370.000
520.000	5519.000	350.000
521.000	5520.000	280.000
522.000	5521.000	290.000
523.000	5522.000	330.000
524.000	5523.000	390.000
525.000	5524.000	270.000
526.000	5525.000	290.000
527.000	5526.000	710.000
528.000	5527.000	420.000
529.000	5528.000	280.000
530.000	5529.000	280.000
531.000	5530.000	3790.000
532.000	5531.000	580.000
533.000	5532.000	320.000
534.000	5533.000	270.000
535.000	5534.000	350.000
536.000	5535.000	380.000
537.000	5536.000	1160.000
538.000	5537.000	340.000
539.000	5538.000	390.000
540.000	5539.000	270.000
541.000	5540.000	240.000
542.000	5541.000	340.000
543.000	5542.000	330.000
544.000	5543.000	240.000
545.000	5544.000	290.000
546.000	5545.000	310.000
547.000	5546.000	280.000
548.000	5547.000	270.000
549.000	5548.000	410.000
550.000	5549.000	360.000
551.000	5550.000	350.000
552.000	5551.000	270.000
553.000	5552.000	360.000
554.000	5553.000	410.000
555.000	5554.000	270.000
556.000	5555.000	250.000
557.000	5556.000	310.000
558.000	5557.000	290.000
559.000	5558.000	290.000
560.000	5559.000	170.000
561.000	5560.000	290.000
562.000	5561.000	410.000
563.000	5562.000	280.000
564.000	5563.000	5020.000
565.000	5564.000	420.000
566.000	5565.000	280.000
567.000	5566.000	490.000
568.000	5567.000	300.000
569.000	5568.000	400.000
570.000	5569.000	280.000
571.000	5570.000	400.000
572.000	5571.000	280.000
573.000	5572.000	260.000
574.000	5573.000	260.000
575.000	5574.000	330.000
576.000	5575.000	400.000
577.000	5576.000	300.000
578.000	5577.000	280.000
579.000	5578.000	270.000
580.000	5579.000	340.000
581.000	5580.000	290.000
582.000	5581.000	280.000
583.000	5582.000	330.000
584.000	5583.000	350.000
585.000	5584.000	260.000
586.000	5585.000	330.000
587.000	5586.000	270.000
588.000	5587.000	440.000
589.000	5588.000	280.000
590.000	5589.000	580.000
591.000	5590.000	300.000
592.000	5591.000	200.000
593.000	5592.000	540.000
594.000	5593.000	7010.000
595.000	5594.000	300.000
596.000	5595.000	300.000
597.000	5596.000	360.000
598.000	5597.000	350.000
599.000	5598.000	300.000
600.000	5599.000	310.000
601.000	5600.000	260.000
602.000	5601.000	360.000
603.000	5602.000	310.000
604.000	5603.000	300.000
605.000	5604.000	230.000
606.000	5605.000	340.000
607.000	5606.000	270.000
608.000	5607.000	300.000
609.000	5608.000	370.000
610.000	5609.000	300.000
611.000	5610.000	550.000
612.000	5611.000	310.000
613.000	5612.000	370.000
614.000	5613.000	400.000
615.000	5614.000	400.000
616.000	5615.000	320.000
617.000	5616.000	340.000
618.000	5617.000	400.000
619.000	5618.000	220.000
620.000	5619.000	420.000
621.000	5620.000	400.000
622.000	5621.000	1300.000
623.000	5622.000	3600.000
624.000	5623.000	380.000
625.000	5624.000	270.000
626.000	5625.000	570.000
627.000	5626.000	430.000
628.000	5627.000	480.000
629.000	5628.000	410.000
630.000	5629.000	400.000
631.000	5630.000	380.000
632.000	5631.000	300.000
633.000	5632.000	450.000
634.000	5633.000	510.000
635.000	5634.000	2290.000
636.000	5635.000	510.000
637.000	5636.000	840.000
638.000	5637.000	16320.000
639.000	5638.000	2620.000
640.000	5639.000	390.000
641.000	5640.000	450.000
642.000	5641.000	930.000
643.000	5642.000	800.000
644.000	5643.000	710.000
645.000	5644.000	790.000
646.000	5645.000	600.000
647.000	5646.000	440.000
648.000	5647.000	390.000
649.000	5648.000	440.000
650.000	5649.000	380.000
651.000	5650.000	370.000
652.000	5651.000	360.000
653.000	5652.000	360.000
654.000	5653.000	330.000
655.000	5654.000	510.000
656.000	5655.000	300.000
657.000	5656.000	240.000
658.000	5657.000	460.000
659.000	5658.000	270.000
660.000	5659.000	350.000
661.000	5660.000	460.000
662.000	5661.000	400.000
663.000	5662.000	470.000
664.000	5663.000	360.000
665.000	5664.000	930.000
666.000	5665.000	280.000
667.000	5666.000	340.000
668.000	5667.000	440.000
669.000	5668.000	390.000
670.000	5669.000	390.000
671.000	5670.000	360.000
672.000	5671.000	370.000
673.000	5672.000	390.000
674.000	5673.000	540.000
675.000	5674.000	500.000
676.000	5675.000	470.000
677.000	5676.000	590.000
678.000	5677.000	2290.000
679.000	5678.000	1340.000
680.000	5679.000	330.000
681.000	5680.000	300.000
682.000	5681.000	480.000
683.000	5682.000	460.000
684.000	5683.000	400.000
685.000	5684.000	840.000
686.000	5685.000	630.000
687.000	5686.000	360.000
688.000	5687.000	430.000
689.000	5688.000	490.000
690.000	5689.000	570.000
691.000	5690.000	590.000
692.000	5691.000	590.000
693.000	5692.000	890.000
694.000	5693.000	103490.000
695.000	5694.000	670.000
696.000	5695.000	400.000
697.000	5696.000	660.000
698.000	5697.000	790.000
699.000	5698.000	860.000
700.000	5699.000	660.000
701.000	5700.000	800.000
702.000	5701.000	620.000
703.000	5702.000	820.000
704.000	5703.000	630.000
705.000	5704.000	460.000
706.000	5705.000	600.000
707.000	5706.000	600.000
708.000	5707.000	630.000
709.000	5708.000	530.000
710.000	5709.000	770.000
711.000	5710.000	560.000
712.000	5711.000	700.000
713.000	5712.000	760.000
714.000	5713.000	780.000
715.000	5714.000	800.000
716.000	5715.000	1110.000
717.000	5716.000	1050.000
718.000	5717.000	1370.000
719.000	5718.000	1360.000
720.000	5719.000	1760.000
721.000	5720.000	2390.000
722.000	5721.000	3060.000
723.000	5722.000	4600.000
724.000	5723.000	9340.000
725.000	5724.000	26420.000
726.000	5725.000	2154610.000
727.000	5726.000	56270.000
728.000	5727.000	7900.000
729.000	5728.000	6060.000
730.000	5729.000	35880.000
731.000	5730.000	19970.000
732.000	5731.000	15780.000
733.000	5732.000	13080.000
734.000	5733.000	10960.000
735.000	5734.000	9870.000
736.000	5735.000	9360.000
737.000	5736.000	9010.000
738.000	5737.000	1500.000
739.000	5738.000	1150.000
740.000	5739.000	920.000
741.000	5740.000	850.000
742.000	5741.000	2340.000
743.000	5742.000	980.000
744.000	5743.000	1040.000
745.000	5744.000	1030.000
746.000	5745.000	5830.000
747.000	5746.000	1540.000
748.000	5747.000	1150.000
749.000	5748.000	1300.000
750.000	5749.000	1740.000
751.000	5750.000	1620.000
752.000	5751.000	2400.000
753.000	5752.000	3580.000
754.000	5753.000	8170.000
755.000	5754.000	323730.000
756.000	5755.000	31390.000
757.000	5756.000	2880.000
758.000	5757.000	2020.000
759.000	5758.000	15780.000
760.000	5759.000	8910.000
761.000	5760.000	7660.000
762.000	5761.000	6290.000
763.000	5762.000	5170.000
764.000	5763.000	5140.000
765.000	5764.000	4080.000
766.000	5765.000	4090.000
767.000	5766.000	880.000
768.000	5767.000	810.000
