step    Monochromator-step  cps
1.000	3800.000	1010.000
2.000	3802.000	820.000
3.000	3804.000	1060.000
4.000	3806.000	810.000
5.000	3808.000	980.000
6.000	3810.000	850.000
7.000	3812.000	810.000
8.000	3814.000	980.000
9.000	3816.000	1190.000
10.000	3818.000	890.000
11.000	3820.000	1030.000
12.000	3822.000	1000.000
13.000	3824.000	980.000
14.000	3826.000	860.000
15.000	3828.000	1260.000
16.000	3830.000	940.000
17.000	3832.000	1130.000
18.000	3834.000	920.000
19.000	3836.000	940.000
20.000	3838.000	890.000
21.000	3840.000	1070.000
22.000	3842.000	980.000
23.000	3844.000	1280.000
24.000	3846.000	980.000
25.000	3848.000	970.000
26.000	3850.000	3400.000
27.000	3852.000	1290.000
28.000	3854.000	820.000
29.000	3856.000	1270.000
30.000	3858.000	920.000
31.000	3860.000	1300.000
32.000	3862.000	1150.000
33.000	3864.000	920.000
34.000	3866.000	1140.000
35.000	3868.000	900.000
36.000	3870.000	1040.000
37.000	3872.000	1680.000
38.000	3874.000	1840.000
39.000	3876.000	950.000
40.000	3878.000	1320.000
41.000	3880.000	830.000
42.000	3882.000	930.000
43.000	3884.000	770.000
44.000	3886.000	2630.000
45.000	3888.000	960.000
46.000	3890.000	1190.000
47.000	3892.000	1240.000
48.000	3894.000	770.000
49.000	3896.000	1080.000
50.000	3898.000	990.000
51.000	3900.000	820.000
52.000	3902.000	1250.000
53.000	3904.000	890.000
54.000	3906.000	940.000
55.000	3908.000	1160.000
56.000	3910.000	860.000
57.000	3912.000	1380.000
58.000	3914.000	1130.000
59.000	3916.000	1560.000
60.000	3918.000	1010.000
61.000	3920.000	900.000
62.000	3922.000	920.000
63.000	3924.000	1930.000
64.000	3926.000	960.000
65.000	3928.000	880.000
66.000	3930.000	990.000
67.000	3932.000	710.000
68.000	3934.000	1360.000
69.000	3936.000	1090.000
70.000	3938.000	1290.000
71.000	3940.000	920.000
72.000	3942.000	880.000
73.000	3944.000	2260.000
74.000	3946.000	1970.000
75.000	3948.000	700.000
76.000	3950.000	7550.000
77.000	3952.000	1020.000
78.000	3954.000	1480.000
79.000	3956.000	1110.000
80.000	3958.000	1100.000
81.000	3960.000	760.000
82.000	3962.000	1100.000
83.000	3964.000	1230.000
84.000	3966.000	950.000
85.000	3968.000	2470.000
86.000	3970.000	690.000
87.000	3972.000	1120.000
88.000	3974.000	1060.000
89.000	3976.000	1390.000
90.000	3978.000	1050.000
91.000	3980.000	1030.000
92.000	3982.000	70160.000
93.000	3984.000	1000.000
94.000	3986.000	1120.000
95.000	3988.000	900.000
96.000	3990.000	1220.000
97.000	3992.000	920.000
98.000	3994.000	910.000
99.000	3996.000	880.000
100.000	3998.000	710.000
101.000	4000.000	980.000
102.000	4002.000	800.000
103.000	4004.000	860.000
104.000	4006.000	610.000
105.000	4008.000	670.000
106.000	4010.000	730.000
107.000	4012.000	1440.000
108.000	4014.000	1300.000
109.000	4016.000	710.000
110.000	4018.000	810.000
111.000	4020.000	720.000
112.000	4022.000	720.000
113.000	4024.000	800.000
114.000	4026.000	940.000
115.000	4028.000	650.000
116.000	4030.000	640.000
117.000	4032.000	760.000
118.000	4034.000	690.000
119.000	4036.000	870.000
120.000	4038.000	580.000
121.000	4040.000	670.000
122.000	4042.000	1070.000
123.000	4044.000	790.000
124.000	4046.000	690.000
125.000	4048.000	750.000
126.000	4050.000	610.000
127.000	4052.000	730.000
128.000	4054.000	700.000
129.000	4056.000	840.000
130.000	4058.000	610.000
131.000	4060.000	2920.000
132.000	4062.000	2690.000
133.000	4064.000	650.000
134.000	4066.000	780.000
135.000	4068.000	920.000
136.000	4070.000	530.000
137.000	4072.000	810.000
138.000	4074.000	780.000
139.000	4076.000	730.000
140.000	4078.000	1260.000
141.000	4080.000	1010.000
142.000	4082.000	1030.000
143.000	4084.000	870.000
144.000	4086.000	1150.000
145.000	4088.000	770.000
146.000	4090.000	1940.000
147.000	4092.000	2840.000
148.000	4094.000	870.000
149.000	4096.000	900.000
150.000	4098.000	680.000
151.000	4100.000	670.000
152.000	4102.000	2030.000
153.000	4104.000	1230.000
154.000	4106.000	620.000
155.000	4108.000	860.000
156.000	4110.000	580.000
157.000	4112.000	860.000
158.000	4114.000	620.000
159.000	4116.000	770.000
160.000	4118.000	540.000
161.000	4120.000	700.000
162.000	4122.000	720.000
163.000	4124.000	680.000
164.000	4126.000	680.000
165.000	4128.000	590.000
166.000	4130.000	880.000
167.000	4132.000	650.000
168.000	4134.000	590.000
169.000	4136.000	690.000
170.000	4138.000	570.000
171.000	4140.000	750.000
172.000	4142.000	650.000
173.000	4144.000	660.000
174.000	4146.000	580.000
175.000	4148.000	530.000
176.000	4150.000	720.000
177.000	4152.000	640.000
178.000	4154.000	650.000
179.000	4156.000	660.000
180.000	4158.000	640.000
181.000	4160.000	700.000
182.000	4162.000	810.000
183.000	4164.000	680.000
184.000	4166.000	680.000
185.000	4168.000	700.000
186.000	4170.000	790.000
187.000	4172.000	920.000
188.000	4174.000	550.000
189.000	4176.000	550.000
190.000	4178.000	660.000
191.000	4180.000	760.000
192.000	4182.000	540.000
193.000	4184.000	630.000
194.000	4186.000	570.000
195.000	4188.000	990.000
196.000	4190.000	640.000
197.000	4192.000	740.000
198.000	4194.000	620.000
199.000	4196.000	660.000
200.000	4198.000	750.000
201.000	4200.000	670.000
202.000	4202.000	630.000
203.000	4204.000	780.000
204.000	4206.000	520.000
205.000	4208.000	650.000
206.000	4210.000	850.000
207.000	4212.000	880.000
208.000	4214.000	720.000
209.000	4216.000	690.000
210.000	4218.000	1010.000
211.000	4220.000	186590.000
212.000	4222.000	700.000
213.000	4224.000	870.000
214.000	4226.000	590.000
215.000	4228.000	920.000
216.000	4230.000	810.000
217.000	4232.000	520.000
218.000	4234.000	800.000
219.000	4236.000	600.000
220.000	4238.000	900.000
221.000	4240.000	890.000
222.000	4242.000	660.000
223.000	4244.000	600.000
224.000	4246.000	750.000
225.000	4248.000	670.000
226.000	4250.000	1000.000
227.000	4252.000	600.000
228.000	4254.000	760.000
229.000	4256.000	710.000
230.000	4258.000	630.000
231.000	4260.000	480.000
232.000	4262.000	740.000
233.000	4264.000	860.000
234.000	4266.000	850.000
235.000	4268.000	1360.000
236.000	4270.000	2030.000
237.000	4272.000	720.000
238.000	4274.000	620.000
239.000	4276.000	620.000
240.000	4278.000	660.000
241.000	4280.000	1650.000
242.000	4282.000	820.000
243.000	4284.000	770.000
244.000	4286.000	660.000
245.000	4288.000	630.000
246.000	4290.000	680.000
247.000	4292.000	890.000
248.000	4294.000	2080.000
249.000	4296.000	2140.000
250.000	4298.000	1000.000
251.000	4300.000	1070.000
252.000	4302.000	1690.000
253.000	4304.000	910.000
254.000	4306.000	680.000
255.000	4308.000	870.000
256.000	4310.000	600.000
257.000	4312.000	660.000
258.000	4314.000	850.000
259.000	4316.000	760.000
260.000	4318.000	710.000
261.000	4320.000	780.000
262.000	4322.000	880.000
263.000	4324.000	1620.000
264.000	4326.000	900.000
265.000	4328.000	880.000
266.000	4330.000	900.000
267.000	4332.000	1750.000
268.000	4334.000	630.000
269.000	4336.000	1900.000
270.000	4338.000	1970.000
271.000	4340.000	5470.000
272.000	4342.000	800.000
273.000	4344.000	740.000
274.000	4346.000	3460.000
275.000	4348.000	880.000
276.000	4350.000	770.000
277.000	4352.000	700.000
278.000	4354.000	610.000
279.000	4356.000	1160.000
280.000	4358.000	870.000
281.000	4360.000	1090.000
282.000	4362.000	780.000
283.000	4364.000	680.000
284.000	4366.000	1150.000
285.000	4368.000	780.000
286.000	4370.000	560.000
287.000	4372.000	1190.000
288.000	4374.000	780.000
289.000	4376.000	1180.000
290.000	4378.000	910.000
291.000	4380.000	910.000
292.000	4382.000	770.000
293.000	4384.000	1000.000
294.000	4386.000	860.000
295.000	4388.000	870.000
296.000	4390.000	860.000
297.000	4392.000	700.000
298.000	4394.000	1170.000
299.000	4396.000	1000.000
300.000	4398.000	960.000
301.000	4400.000	1520.000
302.000	4402.000	1110.000
303.000	4404.000	730.000
304.000	4406.000	930.000
305.000	4408.000	1080.000
306.000	4410.000	880.000
307.000	4412.000	1060.000
308.000	4414.000	490.000
309.000	4416.000	720.000
310.000	4418.000	930.000
311.000	4420.000	640.000
312.000	4422.000	1000.000
313.000	4424.000	630.000
314.000	4426.000	810.000
315.000	4428.000	720.000
316.000	4430.000	1110.000
317.000	4432.000	580.000
318.000	4434.000	600.000
319.000	4436.000	1140.000
320.000	4438.000	600.000
321.000	4440.000	420.000
322.000	4442.000	1410.000
323.000	4444.000	970.000
324.000	4446.000	980.000
325.000	4448.000	540.000
326.000	4450.000	670.000
327.000	4452.000	690.000
328.000	4454.000	1410.000
329.000	4456.000	850.000
330.000	4458.000	2980.000
331.000	4460.000	1630.000
332.000	4462.000	730.000
333.000	4464.000	560.000
334.000	4466.000	600.000
335.000	4468.000	510.000
336.000	4470.000	580.000
337.000	4472.000	730.000
338.000	4474.000	400.000
339.000	4476.000	570.000
340.000	4478.000	580.000
341.000	4480.000	540.000
342.000	4482.000	390.000
343.000	4484.000	750.000
344.000	4486.000	740.000
345.000	4488.000	500.000
346.000	4490.000	590.000
347.000	4492.000	480.000
348.000	4494.000	540.000
349.000	4496.000	1230.000
350.000	4498.000	650.000
351.000	4500.000	580.000
352.000	4502.000	590.000
353.000	4504.000	760.000
354.000	4506.000	5960.000
355.000	4508.000	590.000
356.000	4510.000	7930.000
357.000	4512.000	10320.000
358.000	4514.000	530.000
359.000	4516.000	710.000
360.000	4518.000	610.000
361.000	4520.000	450.000
362.000	4522.000	470.000
363.000	4524.000	600.000
364.000	4526.000	710.000
365.000	4528.000	570.000
366.000	4530.000	500.000
367.000	4532.000	820.000
368.000	4534.000	440.000
369.000	4536.000	740.000
370.000	4538.000	880.000
371.000	4540.000	700.000
372.000	4542.000	580.000
373.000	4544.000	830.000
374.000	4546.000	960.000
375.000	4548.000	760.000
376.000	4550.000	820.000
377.000	4552.000	530.000
378.000	4554.000	420.000
379.000	4556.000	530.000
380.000	4558.000	670.000
381.000	4560.000	1350.000
382.000	4562.000	2080.000
383.000	4564.000	1210.000
384.000	4566.000	560.000
385.000	4568.000	1800.000
386.000	4570.000	1160.000
387.000	4572.000	590.000
388.000	4574.000	490.000
389.000	4576.000	530.000
390.000	4578.000	560.000
391.000	4580.000	600.000
392.000	4582.000	560.000
393.000	4584.000	370.000
394.000	4586.000	540.000
395.000	4588.000	550.000
396.000	4590.000	470.000
397.000	4592.000	1360.000
398.000	4594.000	420.000
399.000	4596.000	510.000
400.000	4598.000	500.000
401.000	4600.000	490.000
402.000	4602.000	640.000
403.000	4604.000	420.000
404.000	4606.000	540.000
405.000	4608.000	490.000
406.000	4610.000	520.000
407.000	4612.000	380.000
408.000	4614.000	610.000
409.000	4616.000	500.000
410.000	4618.000	460.000
411.000	4620.000	770.000
412.000	4622.000	500.000
413.000	4624.000	500.000
414.000	4626.000	290.000
415.000	4628.000	520.000
416.000	4630.000	380.000
417.000	4632.000	330.000
418.000	4634.000	410.000
419.000	4636.000	580.000
420.000	4638.000	520.000
421.000	4640.000	500.000
422.000	4642.000	520.000
423.000	4644.000	450.000
424.000	4646.000	510.000
425.000	4648.000	700.000
426.000	4650.000	550.000
427.000	4652.000	750.000
428.000	4654.000	460.000
429.000	4656.000	380.000
430.000	4658.000	420.000
431.000	4660.000	630.000
432.000	4662.000	480.000
433.000	4664.000	960.000
434.000	4666.000	480.000
435.000	4668.000	460.000
436.000	4670.000	650.000
437.000	4672.000	850.000
438.000	4674.000	580.000
439.000	4676.000	590.000
440.000	4678.000	360.000
441.000	4680.000	850.000
442.000	4682.000	560.000
443.000	4684.000	410.000
444.000	4686.000	490.000
445.000	4688.000	770.000
446.000	4690.000	650.000
447.000	4692.000	390.000
448.000	4694.000	500.000
449.000	4696.000	540.000
450.000	4698.000	530.000
451.000	4700.000	910.000
452.000	4702.000	840.000
453.000	4704.000	360.000
454.000	4706.000	500.000
455.000	4708.000	840.000
456.000	4710.000	1250.000
457.000	4712.000	530.000
458.000	4714.000	640.000
459.000	4716.000	500.000
460.000	4718.000	500.000
461.000	4720.000	820.000
462.000	4722.000	500.000
463.000	4724.000	540.000
464.000	4726.000	770.000
465.000	4728.000	700.000
466.000	4730.000	790.000
467.000	4732.000	870.000
468.000	4734.000	3110.000
469.000	4736.000	2320.000
470.000	4738.000	28620.000
471.000	4740.000	2020.000
472.000	4742.000	1700.000
473.000	4744.000	1410.000
474.000	4746.000	950.000
475.000	4748.000	980.000
476.000	4750.000	1990.000
477.000	4752.000	1000.000
478.000	4754.000	690.000
479.000	4756.000	720.000
480.000	4758.000	560.000
481.000	4760.000	780.000
482.000	4762.000	580.000
483.000	4764.000	800.000
484.000	4766.000	600.000
485.000	4768.000	670.000
486.000	4770.000	530.000
487.000	4772.000	580.000
488.000	4774.000	490.000
489.000	4776.000	360.000
490.000	4778.000	840.000
491.000	4780.000	520.000
492.000	4782.000	690.000
493.000	4784.000	490.000
494.000	4786.000	1200.000
495.000	4788.000	560.000
496.000	4790.000	430.000
497.000	4792.000	470.000
498.000	4794.000	440.000
499.000	4796.000	920.000
500.000	4798.000	590.000
501.000	4800.000	570.000
502.000	4802.000	760.000
503.000	4804.000	330.000
504.000	4806.000	4620.000
505.000	4808.000	370.000
506.000	4810.000	410.000
507.000	4812.000	870.000
508.000	4814.000	770.000
509.000	4816.000	1040.000
510.000	4818.000	320.000
511.000	4820.000	540.000
512.000	4822.000	780.000
513.000	4824.000	350.000
514.000	4826.000	510.000
515.000	4828.000	630.000
516.000	4830.000	400.000
517.000	4832.000	710.000
518.000	4834.000	540.000
519.000	4836.000	360.000
520.000	4838.000	560.000
521.000	4840.000	510.000
522.000	4842.000	690.000
523.000	4844.000	560.000
524.000	4846.000	1490.000
525.000	4848.000	460.000
526.000	4850.000	3080.000
527.000	4852.000	370.000
528.000	4854.000	570.000
529.000	4856.000	930.000
530.000	4858.000	550.000
531.000	4860.000	490.000
532.000	4862.000	380.000
533.000	4864.000	360.000
534.000	4866.000	350.000
535.000	4868.000	510.000
536.000	4870.000	480.000
537.000	4872.000	400.000
538.000	4874.000	270.000
539.000	4876.000	370.000
540.000	4878.000	450.000
541.000	4880.000	1200.000
542.000	4882.000	250.000
543.000	4884.000	370.000
544.000	4886.000	610.000
545.000	4888.000	1060.000
546.000	4890.000	680.000
547.000	4892.000	580.000
548.000	4894.000	690.000
549.000	4896.000	370.000
550.000	4898.000	380.000
551.000	4900.000	400.000
552.000	4902.000	470.000
553.000	4904.000	500.000
554.000	4906.000	360.000
555.000	4908.000	450.000
556.000	4910.000	350.000
557.000	4912.000	540.000
558.000	4914.000	330.000
559.000	4916.000	520.000
560.000	4918.000	1120.000
561.000	4920.000	360.000
562.000	4922.000	350.000
563.000	4924.000	440.000
564.000	4926.000	730.000
565.000	4928.000	480.000
566.000	4930.000	390.000
567.000	4932.000	420.000
568.000	4934.000	320.000
569.000	4936.000	370.000
570.000	4938.000	650.000
571.000	4940.000	730.000
572.000	4942.000	450.000
573.000	4944.000	750.000
574.000	4946.000	650.000
575.000	4948.000	380.000
576.000	4950.000	300.000
577.000	4952.000	910.000
578.000	4954.000	360.000
579.000	4956.000	400.000
580.000	4958.000	930.000
581.000	4960.000	380.000
582.000	4962.000	320.000
583.000	4964.000	280.000
584.000	4966.000	420.000
585.000	4968.000	340.000
586.000	4970.000	490.000
587.000	4972.000	510.000
588.000	4974.000	420.000
589.000	4976.000	580.000
590.000	4978.000	330.000
591.000	4980.000	420.000
592.000	4982.000	320.000
593.000	4984.000	540.000
594.000	4986.000	450.000
595.000	4988.000	380.000
596.000	4990.000	290.000
597.000	4992.000	480.000
598.000	4994.000	380.000
599.000	4996.000	440.000
600.000	4998.000	300.000
601.000	5000.000	350.000
602.000	5002.000	380.000
603.000	5004.000	500.000
604.000	5006.000	380.000
605.000	5008.000	360.000
606.000	5010.000	390.000
607.000	5012.000	360.000
608.000	5014.000	400.000
609.000	5016.000	360.000
610.000	5018.000	470.000
611.000	5020.000	410.000
612.000	5022.000	520.000
613.000	5024.000	520.000
614.000	5026.000	530.000
615.000	5028.000	360.000
616.000	5030.000	610.000
617.000	5032.000	550.000
618.000	5034.000	430.000
619.000	5036.000	550.000
620.000	5038.000	260.000
621.000	5040.000	360.000
622.000	5042.000	330.000
623.000	5044.000	720.000
624.000	5046.000	420.000
625.000	5048.000	360.000
626.000	5050.000	440.000
627.000	5052.000	370.000
628.000	5054.000	530.000
629.000	5056.000	500.000
630.000	5058.000	250.000
631.000	5060.000	380.000
632.000	5062.000	390.000
633.000	5064.000	590.000
634.000	5066.000	350.000
635.000	5068.000	220.000
636.000	5070.000	330.000
637.000	5072.000	770.000
638.000	5074.000	450.000
639.000	5076.000	350.000
640.000	5078.000	370.000
641.000	5080.000	430.000
642.000	5082.000	220.000
643.000	5084.000	280.000
644.000	5086.000	320.000
645.000	5088.000	470.000
646.000	5090.000	420.000
647.000	5092.000	300.000
648.000	5094.000	500.000
649.000	5096.000	290.000
650.000	5098.000	530.000
651.000	5100.000	560.000
652.000	5102.000	530.000
653.000	5104.000	420.000
654.000	5106.000	600.000
655.000	5108.000	380.000
656.000	5110.000	330.000
657.000	5112.000	400.000
658.000	5114.000	400.000
659.000	5116.000	340.000
660.000	5118.000	460.000
661.000	5120.000	500.000
662.000	5122.000	340.000
663.000	5124.000	210.000
664.000	5126.000	360.000
665.000	5128.000	250.000
666.000	5130.000	220.000
667.000	5132.000	630.000
668.000	5134.000	360.000
669.000	5136.000	450.000
670.000	5138.000	360.000
671.000	5140.000	620.000
672.000	5142.000	530.000
673.000	5144.000	460.000
674.000	5146.000	760.000
675.000	5148.000	1280.000
676.000	5150.000	360.000
677.000	5152.000	370.000
678.000	5154.000	620.000
679.000	5156.000	500.000
680.000	5158.000	340.000
681.000	5160.000	720.000
682.000	5162.000	480.000
683.000	5164.000	330.000
684.000	5166.000	390.000
685.000	5168.000	310.000
686.000	5170.000	370.000
687.000	5172.000	310.000
688.000	5174.000	420.000
689.000	5176.000	400.000
690.000	5178.000	700.000
691.000	5180.000	390.000
692.000	5182.000	290.000
693.000	5184.000	590.000
694.000	5186.000	250.000
695.000	5188.000	290.000
696.000	5190.000	270.000
697.000	5192.000	380.000
698.000	5194.000	420.000
699.000	5196.000	380.000
700.000	5198.000	410.000
701.000	5200.000	270.000
702.000	5202.000	610.000
703.000	5204.000	390.000
704.000	5206.000	390.000
705.000	5208.000	450.000
706.000	5210.000	350.000
707.000	5212.000	910.000
708.000	5214.000	250.000
709.000	5216.000	430.000
710.000	5218.000	370.000
711.000	5220.000	690.000
712.000	5222.000	410.000
713.000	5224.000	480.000
714.000	5226.000	450.000
715.000	5228.000	340.000
716.000	5230.000	490.000
717.000	5232.000	410.000
718.000	5234.000	440.000
719.000	5236.000	280.000
720.000	5238.000	450.000
721.000	5240.000	270.000
722.000	5242.000	370.000
723.000	5244.000	640.000
724.000	5246.000	450.000
725.000	5248.000	530.000
726.000	5250.000	350.000
727.000	5252.000	430.000
728.000	5254.000	450.000
729.000	5256.000	460.000
730.000	5258.000	410.000
731.000	5260.000	360.000
732.000	5262.000	710.000
733.000	5264.000	440.000
734.000	5266.000	550.000
735.000	5268.000	400.000
736.000	5270.000	430.000
737.000	5272.000	420.000
738.000	5274.000	980.000
739.000	5276.000	1000.000
740.000	5278.000	500.000
741.000	5280.000	710.000
742.000	5282.000	480.000
743.000	5284.000	410.000
744.000	5286.000	500.000
745.000	5288.000	540.000
746.000	5290.000	640.000
747.000	5292.000	650.000
748.000	5294.000	620.000
749.000	5296.000	830.000
750.000	5298.000	800.000
751.000	5300.000	880.000
752.000	5302.000	590.000
753.000	5304.000	730.000
754.000	5306.000	650.000
755.000	5308.000	520.000
756.000	5310.000	440.000
757.000	5312.000	490.000
758.000	5314.000	690.000
759.000	5316.000	420.000
760.000	5318.000	650.000
761.000	5320.000	590.000
762.000	5322.000	650.000
763.000	5324.000	370.000
764.000	5326.000	450.000
765.000	5328.000	500.000
766.000	5330.000	770.000
