step    Monochromator-step  cps
1.000	3900.000	1830.000
2.000	3900.200	1730.000
3.000	3900.400	1830.000
4.000	3900.600	1730.000
5.000	3900.800	2020.000
6.000	3901.000	2020.000
7.000	3901.200	2260.000
8.000	3901.400	1990.000
9.000	3901.600	1840.000
10.000	3901.800	2140.000
11.000	3902.000	2160.000
12.000	3902.200	2140.000
13.000	3902.400	2110.000
14.000	3902.600	2320.000
15.000	3902.800	1940.000
16.000	3903.000	1660.000
17.000	3903.200	2070.000
18.000	3903.400	2060.000
19.000	3903.600	1860.000
20.000	3903.800	1900.000
21.000	3904.000	1720.000
22.000	3904.200	2020.000
23.000	3904.400	1970.000
24.000	3904.600	1720.000
25.000	3904.800	1580.000
26.000	3905.000	2040.000
27.000	3905.200	1800.000
28.000	3905.400	1600.000
29.000	3905.600	1950.000
30.000	3905.800	2140.000
31.000	3906.000	1650.000
32.000	3906.200	1820.000
33.000	3906.400	1900.000
34.000	3906.600	1880.000
35.000	3906.800	2000.000
36.000	3907.000	1880.000
37.000	3907.200	1570.000
38.000	3907.400	1940.000
39.000	3907.600	2030.000
40.000	3907.800	1750.000
41.000	3908.000	1670.000
42.000	3908.200	1940.000
43.000	3908.400	2070.000
44.000	3908.600	2310.000
45.000	3908.800	2040.000
46.000	3909.000	1780.000
47.000	3909.200	1580.000
48.000	3909.400	1700.000
49.000	3909.600	2150.000
50.000	3909.800	2130.000
51.000	3910.000	1940.000
52.000	3910.200	2150.000
53.000	3910.400	1770.000
54.000	3910.600	1730.000
55.000	3910.800	1570.000
56.000	3911.000	1640.000
57.000	3911.200	1930.000
58.000	3911.400	1940.000
59.000	3911.600	2130.000
60.000	3911.800	1990.000
61.000	3912.000	1920.000
62.000	3912.200	1540.000
63.000	3912.400	1890.000
64.000	3912.600	1830.000
65.000	3912.800	1550.000
66.000	3913.000	1650.000
67.000	3913.200	1810.000
68.000	3913.400	1450.000
69.000	3913.600	1990.000
70.000	3913.800	1810.000
71.000	3914.000	1730.000
72.000	3914.200	1950.000
73.000	3914.400	1800.000
74.000	3914.600	1960.000
75.000	3914.800	1740.000
76.000	3915.000	1850.000
77.000	3915.200	1610.000
78.000	3915.400	1530.000
79.000	3915.600	1730.000
80.000	3915.800	1870.000
81.000	3916.000	1530.000
82.000	3916.200	1810.000
83.000	3916.400	1970.000
84.000	3916.600	1930.000
85.000	3916.800	1870.000
86.000	3917.000	1750.000
87.000	3917.200	1670.000
88.000	3917.400	2140.000
89.000	3917.600	2450.000
90.000	3917.800	2630.000
91.000	3918.000	2570.000
92.000	3918.200	2400.000
93.000	3918.400	2100.000
94.000	3918.600	1630.000
95.000	3918.800	1880.000
96.000	3919.000	1720.000
97.000	3919.200	1710.000
98.000	3919.400	1510.000
99.000	3919.600	1850.000
100.000	3919.800	1900.000
101.000	3920.000	1740.000
102.000	3920.200	1830.000
103.000	3920.400	1840.000
104.000	3920.600	1870.000
105.000	3920.800	1470.000
106.000	3921.000	1840.000
107.000	3921.200	1980.000
108.000	3921.400	1810.000
109.000	3921.600	1900.000
110.000	3921.800	1630.000
111.000	3922.000	1580.000
112.000	3922.200	1740.000
113.000	3922.400	1800.000
114.000	3922.600	1530.000
115.000	3922.800	1780.000
116.000	3923.000	1840.000
117.000	3923.200	2070.000
118.000	3923.400	1900.000
119.000	3923.600	1920.000
120.000	3923.800	2360.000
121.000	3924.000	2090.000
122.000	3924.200	1880.000
123.000	3924.400	1530.000
124.000	3924.600	1750.000
125.000	3924.800	2150.000
126.000	3925.000	1830.000
127.000	3925.200	2090.000
128.000	3925.400	1950.000
129.000	3925.600	2030.000
130.000	3925.800	1720.000
131.000	3926.000	2010.000
132.000	3926.200	2450.000
133.000	3926.400	4310.000
134.000	3926.600	4630.000
135.000	3926.800	4070.000
136.000	3927.000	2110.000
137.000	3927.200	1860.000
138.000	3927.400	1810.000
139.000	3927.600	1710.000
140.000	3927.800	2140.000
141.000	3928.000	2170.000
142.000	3928.200	1840.000
143.000	3928.400	2020.000
144.000	3928.600	2220.000
145.000	3928.800	1860.000
146.000	3929.000	1500.000
147.000	3929.200	1620.000
148.000	3929.400	1690.000
149.000	3929.600	1460.000
150.000	3929.800	1500.000
151.000	3930.000	1580.000
152.000	3930.200	1950.000
153.000	3930.400	1910.000
154.000	3930.600	2990.000
155.000	3930.800	2800.000
156.000	3931.000	2440.000
157.000	3931.200	1900.000
158.000	3931.400	1830.000
159.000	3931.600	1800.000
160.000	3931.800	1640.000
161.000	3932.000	1690.000
162.000	3932.200	1770.000
163.000	3932.400	1810.000
164.000	3932.600	1700.000
165.000	3932.800	1470.000
166.000	3933.000	1760.000
167.000	3933.200	1850.000
168.000	3933.400	1990.000
169.000	3933.600	2610.000
170.000	3933.800	3330.000
171.000	3934.000	2420.000
172.000	3934.200	1960.000
173.000	3934.400	2400.000
174.000	3934.600	2700.000
175.000	3934.800	2550.000
176.000	3935.000	2010.000
177.000	3935.200	1710.000
178.000	3935.400	2230.000
179.000	3935.600	2970.000
180.000	3935.800	3120.000
181.000	3936.000	2490.000
182.000	3936.200	1530.000
183.000	3936.400	1840.000
184.000	3936.600	2320.000
185.000	3936.800	2410.000
186.000	3937.000	2510.000
187.000	3937.200	1740.000
188.000	3937.400	1450.000
189.000	3937.600	1680.000
190.000	3937.800	2200.000
191.000	3938.000	2590.000
192.000	3938.200	2250.000
193.000	3938.400	2260.000
194.000	3938.600	1810.000
195.000	3938.800	1790.000
196.000	3939.000	2650.000
197.000	3939.200	2370.000
198.000	3939.400	2610.000
199.000	3939.600	2440.000
200.000	3939.800	3200.000
201.000	3940.000	2690.000
202.000	3940.200	2430.000
203.000	3940.400	2470.000
204.000	3940.600	2390.000
205.000	3940.800	1690.000
206.000	3941.000	1480.000
207.000	3941.200	2090.000
208.000	3941.400	2250.000
209.000	3941.600	2700.000
210.000	3941.800	2330.000
211.000	3942.000	1440.000
212.000	3942.200	1720.000
213.000	3942.400	2560.000
214.000	3942.600	4260.000
215.000	3942.800	3990.000
216.000	3943.000	2660.000
217.000	3943.200	1850.000
218.000	3943.400	2170.000
219.000	3943.600	2900.000
220.000	3943.800	2710.000
221.000	3944.000	1970.000
222.000	3944.200	1790.000
223.000	3944.400	1550.000
224.000	3944.600	1580.000
225.000	3944.800	1580.000
226.000	3945.000	1800.000
227.000	3945.200	1980.000
228.000	3945.400	2140.000
229.000	3945.600	1810.000
230.000	3945.800	2110.000
231.000	3946.000	1680.000
232.000	3946.200	2010.000
233.000	3946.400	2080.000
234.000	3946.600	1770.000
235.000	3946.800	2510.000
236.000	3947.000	4050.000
237.000	3947.200	3530.000
238.000	3947.400	1990.000
239.000	3947.600	1750.000
240.000	3947.800	1710.000
241.000	3948.000	1710.000
242.000	3948.200	1540.000
243.000	3948.400	1560.000
244.000	3948.600	1470.000
245.000	3948.800	1400.000
246.000	3949.000	1630.000
247.000	3949.200	1400.000
248.000	3949.400	1840.000
249.000	3949.600	3000.000
250.000	3949.800	4050.000
251.000	3950.000	3450.000
252.000	3950.200	1810.000
253.000	3950.400	1860.000
254.000	3950.600	1770.000
255.000	3950.800	1800.000
256.000	3951.000	1840.000
257.000	3951.200	1990.000
258.000	3951.400	2400.000
259.000	3951.600	1860.000
260.000	3951.800	1770.000
261.000	3952.000	1530.000
262.000	3952.200	1400.000
263.000	3952.400	1600.000
264.000	3952.600	1840.000
265.000	3952.800	1670.000
266.000	3953.000	1820.000
267.000	3953.200	1890.000
268.000	3953.400	1720.000
269.000	3953.600	1440.000
270.000	3953.800	1780.000
271.000	3954.000	2040.000
272.000	3954.200	2190.000
273.000	3954.400	1930.000
274.000	3954.600	1620.000
275.000	3954.800	1450.000
276.000	3955.000	1670.000
277.000	3955.200	1720.000
278.000	3955.400	1590.000
279.000	3955.600	1520.000
280.000	3955.800	1560.000
281.000	3956.000	1640.000
282.000	3956.200	1620.000
283.000	3956.400	1790.000
284.000	3956.600	1520.000
285.000	3956.800	1600.000
286.000	3957.000	1390.000
287.000	3957.200	1510.000
288.000	3957.400	1500.000
289.000	3957.600	2200.000
290.000	3957.800	1610.000
291.000	3958.000	1470.000
292.000	3958.200	1500.000
293.000	3958.400	1610.000
294.000	3958.600	1740.000
295.000	3958.800	3010.000
296.000	3959.000	2650.000
297.000	3959.200	1770.000
298.000	3959.400	1490.000
299.000	3959.600	1390.000
300.000	3959.800	1530.000
301.000	3960.000	1540.000
302.000	3960.200	1550.000
303.000	3960.400	1280.000
304.000	3960.600	1260.000
305.000	3960.800	1400.000
306.000	3961.000	1240.000
307.000	3961.200	1480.000
308.000	3961.400	1580.000
309.000	3961.600	1390.000
310.000	3961.800	1730.000
311.000	3962.000	1880.000
312.000	3962.200	2060.000
313.000	3962.400	1820.000
314.000	3962.600	1820.000
315.000	3962.800	1350.000
316.000	3963.000	1390.000
317.000	3963.200	1500.000
318.000	3963.400	1570.000
319.000	3963.600	1480.000
320.000	3963.800	1530.000
321.000	3964.000	1800.000
322.000	3964.200	1530.000
323.000	3964.400	1550.000
324.000	3964.600	1750.000
325.000	3964.800	1470.000
326.000	3965.000	1710.000
327.000	3965.200	2170.000
328.000	3965.400	1540.000
329.000	3965.600	1450.000
330.000	3965.800	1670.000
331.000	3966.000	1620.000
332.000	3966.200	1720.000
333.000	3966.400	2100.000
334.000	3966.600	2090.000
335.000	3966.800	2030.000
336.000	3967.000	1900.000
337.000	3967.200	1700.000
338.000	3967.400	1990.000
339.000	3967.600	2840.000
340.000	3967.800	2520.000
341.000	3968.000	2640.000
342.000	3968.200	2170.000
343.000	3968.400	1900.000
344.000	3968.600	1780.000
345.000	3968.800	1310.000
346.000	3969.000	1440.000
347.000	3969.200	1410.000
348.000	3969.400	1490.000
349.000	3969.600	1610.000
350.000	3969.800	1430.000
351.000	3970.000	1640.000
352.000	3970.200	1670.000
353.000	3970.400	1920.000
354.000	3970.600	1760.000
355.000	3970.800	1650.000
356.000	3971.000	1630.000
357.000	3971.200	1550.000
358.000	3971.400	1470.000
359.000	3971.600	1680.000
360.000	3971.800	1570.000
361.000	3972.000	1410.000
362.000	3972.200	1560.000
363.000	3972.400	1270.000
364.000	3972.600	1430.000
365.000	3972.800	1460.000
366.000	3973.000	1860.000
367.000	3973.200	1800.000
368.000	3973.400	1740.000
369.000	3973.600	1480.000
370.000	3973.800	1730.000
371.000	3974.000	1610.000
372.000	3974.200	1900.000
373.000	3974.400	1680.000
374.000	3974.600	1900.000
375.000	3974.800	1390.000
376.000	3975.000	1520.000
377.000	3975.200	1650.000
378.000	3975.400	1910.000
379.000	3975.600	2160.000
380.000	3975.800	1860.000
381.000	3976.000	1520.000
382.000	3976.200	1640.000
383.000	3976.400	1450.000
384.000	3976.600	1480.000
385.000	3976.800	1450.000
386.000	3977.000	1530.000
387.000	3977.200	1560.000
388.000	3977.400	1600.000
389.000	3977.600	1440.000
390.000	3977.800	1390.000
391.000	3978.000	1580.000
392.000	3978.200	1470.000
393.000	3978.400	1600.000
394.000	3978.600	1500.000
395.000	3978.800	1490.000
396.000	3979.000	1470.000
397.000	3979.200	1240.000
398.000	3979.400	1490.000
399.000	3979.600	1440.000
400.000	3979.800	1420.000
401.000	3980.000	1420.000
402.000	3980.200	1640.000
403.000	3980.400	2680.000
404.000	3980.600	3080.000
405.000	3980.800	2280.000
406.000	3981.000	1570.000
407.000	3981.200	1620.000
408.000	3981.400	1850.000
409.000	3981.600	2730.000
410.000	3981.800	2670.000
411.000	3982.000	1700.000
412.000	3982.200	1580.000
413.000	3982.400	1260.000
414.000	3982.600	1220.000
415.000	3982.800	1500.000
416.000	3983.000	1380.000
417.000	3983.200	1580.000
418.000	3983.400	1720.000
419.000	3983.600	1410.000
420.000	3983.800	1480.000
421.000	3984.000	1560.000
422.000	3984.200	1550.000
423.000	3984.400	1540.000
424.000	3984.600	1330.000
425.000	3984.800	1470.000
426.000	3985.000	1390.000
427.000	3985.200	1610.000
428.000	3985.400	1530.000
429.000	3985.600	1690.000
430.000	3985.800	1930.000
431.000	3986.000	2050.000
432.000	3986.200	1680.000
433.000	3986.400	1560.000
434.000	3986.600	1410.000
435.000	3986.800	1280.000
436.000	3987.000	1140.000
437.000	3987.200	1660.000
438.000	3987.400	1480.000
439.000	3987.600	1420.000
440.000	3987.800	1720.000
441.000	3988.000	1480.000
442.000	3988.200	1670.000
443.000	3988.400	1350.000
444.000	3988.600	1340.000
445.000	3988.800	1300.000
446.000	3989.000	1760.000
447.000	3989.200	1870.000
448.000	3989.400	1480.000
449.000	3989.600	1520.000
450.000	3989.800	1500.000
451.000	3990.000	1660.000
452.000	3990.200	1440.000
453.000	3990.400	1370.000
454.000	3990.600	1450.000
455.000	3990.800	1290.000
456.000	3991.000	1640.000
457.000	3991.200	1180.000
458.000	3991.400	1160.000
459.000	3991.600	1230.000
460.000	3991.800	1610.000
461.000	3992.000	1440.000
462.000	3992.200	1470.000
463.000	3992.400	1310.000
464.000	3992.600	1490.000
465.000	3992.800	1330.000
466.000	3993.000	1380.000
467.000	3993.200	1240.000
468.000	3993.400	1870.000
469.000	3993.600	2240.000
470.000	3993.800	1890.000
471.000	3994.000	1580.000
472.000	3994.200	1780.000
473.000	3994.400	1870.000
474.000	3994.600	1700.000
475.000	3994.800	1380.000
476.000	3995.000	1430.000
477.000	3995.200	1450.000
478.000	3995.400	1410.000
479.000	3995.600	1340.000
480.000	3995.800	1520.000
481.000	3996.000	1620.000
482.000	3996.200	1640.000
483.000	3996.400	1370.000
484.000	3996.600	1470.000
485.000	3996.800	1380.000
486.000	3997.000	1370.000
487.000	3997.200	1440.000
488.000	3997.400	1290.000
489.000	3997.600	1410.000
490.000	3997.800	1480.000
491.000	3998.000	1520.000
492.000	3998.200	1010.000
493.000	3998.400	1170.000
494.000	3998.600	1330.000
495.000	3998.800	1300.000
496.000	3999.000	1370.000
497.000	3999.200	1540.000
498.000	3999.400	1430.000
499.000	3999.600	1480.000
500.000	3999.800	1430.000
501.000	4000.000	1200.000
502.000	4000.200	1190.000
503.000	4000.400	1230.000
504.000	4000.600	1500.000
505.000	4000.800	1620.000
506.000	4001.000	1630.000
507.000	4001.200	1710.000
508.000	4001.400	2430.000
509.000	4001.600	1990.000
510.000	4001.800	1330.000
511.000	4002.000	1240.000
512.000	4002.200	1460.000
513.000	4002.400	1130.000
514.000	4002.600	1450.000
515.000	4002.800	1600.000
516.000	4003.000	1390.000
517.000	4003.200	1620.000
518.000	4003.400	1220.000
519.000	4003.600	1270.000
520.000	4003.800	1290.000
521.000	4004.000	1530.000
522.000	4004.200	1780.000
523.000	4004.400	1500.000
524.000	4004.600	1420.000
525.000	4004.800	1960.000
526.000	4005.000	2310.000
527.000	4005.200	1530.000
528.000	4005.400	1460.000
529.000	4005.600	1480.000
530.000	4005.800	1590.000
531.000	4006.000	1580.000
532.000	4006.200	2620.000
533.000	4006.400	2200.000
534.000	4006.600	2090.000
535.000	4006.800	2410.000
536.000	4007.000	3260.000
537.000	4007.200	2990.000
538.000	4007.400	1860.000
539.000	4007.600	1330.000
540.000	4007.800	1320.000
541.000	4008.000	1360.000
542.000	4008.200	1330.000
543.000	4008.400	1490.000
544.000	4008.600	1220.000
545.000	4008.800	1250.000
546.000	4009.000	1590.000
547.000	4009.200	1870.000
548.000	4009.400	1540.000
549.000	4009.600	1870.000
550.000	4009.800	1410.000
551.000	4010.000	1410.000
552.000	4010.200	1440.000
553.000	4010.400	1260.000
554.000	4010.600	1410.000
555.000	4010.800	1950.000
556.000	4011.000	2690.000
557.000	4011.200	3420.000
558.000	4011.400	2800.000
559.000	4011.600	1670.000
560.000	4011.800	1460.000
561.000	4012.000	1590.000
562.000	4012.200	1480.000
563.000	4012.400	1610.000
564.000	4012.600	1410.000
565.000	4012.800	1580.000
566.000	4013.000	1460.000
567.000	4013.200	1230.000
568.000	4013.400	1480.000
569.000	4013.600	1310.000
570.000	4013.800	2530.000
571.000	4014.000	4230.000
572.000	4014.200	3590.000
573.000	4014.400	1770.000
574.000	4014.600	1370.000
575.000	4014.800	1670.000
576.000	4015.000	1540.000
577.000	4015.200	1350.000
578.000	4015.400	1520.000
579.000	4015.600	1940.000
580.000	4015.800	3040.000
581.000	4016.000	2770.000
582.000	4016.200	1550.000
583.000	4016.400	1470.000
584.000	4016.600	1300.000
585.000	4016.800	1580.000
586.000	4017.000	1890.000
587.000	4017.200	2160.000
588.000	4017.400	1980.000
589.000	4017.600	1530.000
590.000	4017.800	1200.000
591.000	4018.000	1180.000
592.000	4018.200	1630.000
593.000	4018.400	2010.000
594.000	4018.600	1740.000
595.000	4018.800	1360.000
596.000	4019.000	1300.000
597.000	4019.200	1300.000
598.000	4019.400	1420.000
599.000	4019.600	1440.000
600.000	4019.800	1380.000
601.000	4020.000	1460.000
602.000	4020.200	1610.000
603.000	4020.400	1620.000
604.000	4020.600	1560.000
605.000	4020.800	1420.000
606.000	4021.000	1470.000
607.000	4021.200	1540.000
608.000	4021.400	1630.000
609.000	4021.600	1610.000
610.000	4021.800	1650.000
611.000	4022.000	1520.000
612.000	4022.200	1620.000
613.000	4022.400	1650.000
614.000	4022.600	1520.000
615.000	4022.800	1510.000
616.000	4023.000	1340.000
617.000	4023.200	1260.000
618.000	4023.400	1330.000
619.000	4023.600	1370.000
620.000	4023.800	1460.000
621.000	4024.000	1380.000
622.000	4024.200	1180.000
623.000	4024.400	1500.000
624.000	4024.600	2190.000
625.000	4024.800	2410.000
626.000	4025.000	1800.000
627.000	4025.200	1550.000
628.000	4025.400	1480.000
629.000	4025.600	1590.000
630.000	4025.800	1530.000
631.000	4026.000	1820.000
632.000	4026.200	1420.000
633.000	4026.400	1480.000
634.000	4026.600	1230.000
635.000	4026.800	1430.000
636.000	4027.000	2290.000
637.000	4027.200	2940.000
638.000	4027.400	2450.000
639.000	4027.600	1310.000
640.000	4027.800	1470.000
641.000	4028.000	1160.000
642.000	4028.200	1430.000
643.000	4028.400	1310.000
644.000	4028.600	1240.000
645.000	4028.800	1460.000
646.000	4029.000	1580.000
647.000	4029.200	1100.000
648.000	4029.400	1310.000
649.000	4029.600	1570.000
650.000	4029.800	1620.000
651.000	4030.000	1780.000
652.000	4030.200	2730.000
653.000	4030.400	2220.000
654.000	4030.600	1390.000
655.000	4030.800	1440.000
656.000	4031.000	1320.000
657.000	4031.200	1340.000
658.000	4031.400	1590.000
659.000	4031.600	1250.000
660.000	4031.800	1380.000
661.000	4032.000	1720.000
662.000	4032.200	1540.000
663.000	4032.400	1350.000
664.000	4032.600	1700.000
665.000	4032.800	2180.000
666.000	4033.000	2110.000
667.000	4033.200	1690.000
668.000	4033.400	1390.000
669.000	4033.600	1190.000
670.000	4033.800	1430.000
671.000	4034.000	1220.000
672.000	4034.200	1440.000
673.000	4034.400	1490.000
674.000	4034.600	1410.000
675.000	4034.800	1720.000
676.000	4035.000	1330.000
677.000	4035.200	1750.000
678.000	4035.400	1510.000
679.000	4035.600	1550.000
680.000	4035.800	1640.000
681.000	4036.000	1530.000
682.000	4036.200	2100.000
683.000	4036.400	2390.000
684.000	4036.600	2190.000
685.000	4036.800	2150.000
686.000	4037.000	1110.000
687.000	4037.200	1400.000
688.000	4037.400	1170.000
689.000	4037.600	1360.000
690.000	4037.800	1400.000
691.000	4038.000	1090.000
692.000	4038.200	1260.000
693.000	4038.400	1420.000
694.000	4038.600	1580.000
695.000	4038.800	1770.000
696.000	4039.000	1640.000
697.000	4039.200	1420.000
698.000	4039.400	1450.000
699.000	4039.600	1440.000
700.000	4039.800	1220.000
701.000	4040.000	1550.000
702.000	4040.200	1340.000
703.000	4040.400	1060.000
704.000	4040.600	920.000
705.000	4040.800	1380.000
706.000	4041.000	1150.000
707.000	4041.200	1420.000
708.000	4041.400	1710.000
709.000	4041.600	1880.000
710.000	4041.800	2120.000
711.000	4042.000	1460.000
712.000	4042.200	1160.000
713.000	4042.400	1430.000
714.000	4042.600	1430.000
715.000	4042.800	1320.000
716.000	4043.000	1320.000
717.000	4043.200	1820.000
718.000	4043.400	1500.000
719.000	4043.600	1690.000
720.000	4043.800	1610.000
721.000	4044.000	1560.000
722.000	4044.200	1370.000
723.000	4044.400	1420.000
724.000	4044.600	1560.000
725.000	4044.800	1610.000
726.000	4045.000	1710.000
727.000	4045.200	1430.000
728.000	4045.400	1240.000
729.000	4045.600	1300.000
730.000	4045.800	1230.000
731.000	4046.000	1170.000
732.000	4046.200	1260.000
733.000	4046.400	1410.000
734.000	4046.600	1330.000
735.000	4046.800	1250.000
736.000	4047.000	1380.000
737.000	4047.200	1280.000
738.000	4047.400	1500.000
739.000	4047.600	1290.000
740.000	4047.800	1070.000
741.000	4048.000	1180.000
742.000	4048.200	1100.000
743.000	4048.400	1470.000
